# Grace project file
#
@version 50125
@page size 792, 612
@page scroll 5%
@page inout 5%
@link page off
@map font 0 to "Times-Roman", "Times-Roman"
@map font 1 to "Times-Italic", "Times-Italic"
@map font 2 to "Times-Bold", "Times-Bold"
@map font 3 to "Times-BoldItalic", "Times-BoldItalic"
@map font 4 to "Helvetica", "Helvetica"
@map font 5 to "Helvetica-Oblique", "Helvetica-Oblique"
@map font 6 to "Helvetica-Bold", "Helvetica-Bold"
@map font 7 to "Helvetica-BoldOblique", "Helvetica-BoldOblique"
@map font 8 to "Courier", "Courier"
@map font 9 to "Courier-Oblique", "Courier-Oblique"
@map font 10 to "Courier-Bold", "Courier-Bold"
@map font 11 to "Courier-BoldOblique", "Courier-BoldOblique"
@map font 12 to "Symbol", "Symbol"
@map font 13 to "ZapfDingbats", "ZapfDingbats"
@map color 0 to (255, 255, 255), "white"
@map color 1 to (0, 0, 0), "black"
@map color 2 to (255, 0, 0), "red"
@map color 3 to (0, 255, 0), "green"
@map color 4 to (0, 0, 255), "blue"
@map color 5 to (255, 255, 0), "yellow"
@map color 6 to (188, 143, 143), "brown"
@map color 7 to (220, 220, 220), "grey"
@map color 8 to (148, 0, 211), "violet"
@map color 9 to (0, 255, 255), "cyan"
@map color 10 to (255, 0, 255), "magenta"
@map color 11 to (255, 165, 0), "orange"
@map color 12 to (114, 33, 188), "indigo"
@map color 13 to (103, 7, 72), "maroon"
@map color 14 to (64, 224, 208), "turquoise"
@map color 15 to (0, 139, 0), "green4"
@reference date 0
@date wrap off
@date wrap year 1950
@default linewidth 1.0
@default linestyle 1
@default color 1
@default pattern 1
@default font 0
@default char size 1.000000
@default symbol size 1.000000
@default sformat "%.8g"
@background color 0
@page background fill on
@timestamp off
@timestamp 0.03, 0.03
@timestamp color 1
@timestamp rot 0
@timestamp font 0
@timestamp char size 1.000000
@timestamp def "Mon Jun 18 18:26:12 2018"
@r0 off
@link r0 to g0
@r0 type above
@r0 linestyle 1
@r0 linewidth 1.0
@r0 color 1
@r0 line 0, 0, 0, 0
@r1 off
@link r1 to g0
@r1 type above
@r1 linestyle 1
@r1 linewidth 1.0
@r1 color 1
@r1 line 0, 0, 0, 0
@r2 off
@link r2 to g0
@r2 type above
@r2 linestyle 1
@r2 linewidth 1.0
@r2 color 1
@r2 line 0, 0, 0, 0
@r3 off
@link r3 to g0
@r3 type above
@r3 linestyle 1
@r3 linewidth 1.0
@r3 color 1
@r3 line 0, 0, 0, 0
@r4 off
@link r4 to g0
@r4 type above
@r4 linestyle 1
@r4 linewidth 1.0
@r4 color 1
@r4 line 0, 0, 0, 0
@g0 on
@g0 hidden false
@g0 type XY
@g0 stacked false
@g0 bar hgap 0.000000
@g0 fixedpoint off
@g0 fixedpoint type 0
@g0 fixedpoint xy 0.000000, 0.000000
@g0 fixedpoint format general general
@g0 fixedpoint prec 6, 6
@with g0
@    world 0, 0, 6, 2000
@    stack world 0, 0, 0, 0
@    znorm 1
@    view 0.150000, 0.150000, 1.150000, 0.850000
@    title ""
@    title font 4
@    title size 1.500000
@    title color 1
@    subtitle ""
@    subtitle font 4
@    subtitle size 1.000000
@    subtitle color 1
@    xaxes scale Normal
@    yaxes scale Normal
@    xaxes invert off
@    yaxes invert off
@    xaxis  on
@    xaxis  type zero false
@    xaxis  offset 0.000000 , 0.000000
@    xaxis  bar on
@    xaxis  bar color 1
@    xaxis  bar linestyle 1
@    xaxis  bar linewidth 1.0
@    xaxis  label "Displacement (nm)"
@    xaxis  label layout para
@    xaxis  label place auto
@    xaxis  label char size 1.500000
@    xaxis  label font 4
@    xaxis  label color 1
@    xaxis  label place normal
@    xaxis  tick on
@    xaxis  tick major 1
@    xaxis  tick minor ticks 1
@    xaxis  tick default 6
@    xaxis  tick place rounded true
@    xaxis  tick in
@    xaxis  tick major size 1.000000
@    xaxis  tick major color 1
@    xaxis  tick major linewidth 1.0
@    xaxis  tick major linestyle 1
@    xaxis  tick major grid off
@    xaxis  tick minor color 1
@    xaxis  tick minor linewidth 1.0
@    xaxis  tick minor linestyle 1
@    xaxis  tick minor grid off
@    xaxis  tick minor size 0.500000
@    xaxis  ticklabel on
@    xaxis  ticklabel format general
@    xaxis  ticklabel prec 5
@    xaxis  ticklabel formula ""
@    xaxis  ticklabel append ""
@    xaxis  ticklabel prepend ""
@    xaxis  ticklabel angle 0
@    xaxis  ticklabel skip 0
@    xaxis  ticklabel stagger 0
@    xaxis  ticklabel place normal
@    xaxis  ticklabel offset auto
@    xaxis  ticklabel offset 0.000000 , 0.010000
@    xaxis  ticklabel start type auto
@    xaxis  ticklabel start 0.000000
@    xaxis  ticklabel stop type auto
@    xaxis  ticklabel stop 0.000000
@    xaxis  ticklabel char size 1.250000
@    xaxis  ticklabel font 4
@    xaxis  ticklabel color 1
@    xaxis  tick place both
@    xaxis  tick spec type none
@    yaxis  on
@    yaxis  type zero false
@    yaxis  offset 0.000000 , 0.000000
@    yaxis  bar on
@    yaxis  bar color 1
@    yaxis  bar linestyle 1
@    yaxis  bar linewidth 1.0
@    yaxis  label "Pull Force (kJ mol\S-1\N nm\S-1\N)"
@    yaxis  label layout para
@    yaxis  label place auto
@    yaxis  label char size 1.500000
@    yaxis  label font 4
@    yaxis  label color 1
@    yaxis  label place normal
@    yaxis  tick on
@    yaxis  tick major 500
@    yaxis  tick minor ticks 1
@    yaxis  tick default 6
@    yaxis  tick place rounded true
@    yaxis  tick in
@    yaxis  tick major size 1.000000
@    yaxis  tick major color 1
@    yaxis  tick major linewidth 1.0
@    yaxis  tick major linestyle 1
@    yaxis  tick major grid off
@    yaxis  tick minor color 1
@    yaxis  tick minor linewidth 1.0
@    yaxis  tick minor linestyle 1
@    yaxis  tick minor grid off
@    yaxis  tick minor size 0.500000
@    yaxis  ticklabel on
@    yaxis  ticklabel format general
@    yaxis  ticklabel prec 5
@    yaxis  ticklabel formula ""
@    yaxis  ticklabel append ""
@    yaxis  ticklabel prepend ""
@    yaxis  ticklabel angle 0
@    yaxis  ticklabel skip 0
@    yaxis  ticklabel stagger 0
@    yaxis  ticklabel place normal
@    yaxis  ticklabel offset auto
@    yaxis  ticklabel offset 0.000000 , 0.010000
@    yaxis  ticklabel start type auto
@    yaxis  ticklabel start 0.000000
@    yaxis  ticklabel stop type auto
@    yaxis  ticklabel stop 0.000000
@    yaxis  ticklabel char size 1.250000
@    yaxis  ticklabel font 4
@    yaxis  ticklabel color 1
@    yaxis  tick place both
@    yaxis  tick spec type none
@    altxaxis  off
@    altyaxis  off
@    legend on
@    legend loctype view
@    legend 0.85, 0.8
@    legend box color 1
@    legend box pattern 1
@    legend box linewidth 1.0
@    legend box linestyle 1
@    legend box fill color 0
@    legend box fill pattern 1
@    legend font 4
@    legend char size 1.250000
@    legend color 1
@    legend length 4
@    legend vgap 1
@    legend hgap 1
@    legend invert false
@    frame type 0
@    frame linestyle 1
@    frame linewidth 1.0
@    frame color 1
@    frame pattern 1
@    frame background color 0
@    frame background pattern 0
@    s0 hidden false
@    s0 type xy
@    s0 symbol 0
@    s0 symbol size 1.000000
@    s0 symbol color 1
@    s0 symbol pattern 1
@    s0 symbol fill color 1
@    s0 symbol fill pattern 0
@    s0 symbol linewidth 1.0
@    s0 symbol linestyle 1
@    s0 symbol char 65
@    s0 symbol char font 0
@    s0 symbol skip 0
@    s0 line type 1
@    s0 line linestyle 1
@    s0 line linewidth 1.5
@    s0 line color 1
@    s0 line pattern 1
@    s0 baseline type 0
@    s0 baseline off
@    s0 dropline off
@    s0 fill type 0
@    s0 fill rule 0
@    s0 fill color 1
@    s0 fill pattern 1
@    s0 avalue off
@    s0 avalue type 2
@    s0 avalue char size 1.000000
@    s0 avalue font 0
@    s0 avalue color 1
@    s0 avalue rot 0
@    s0 avalue format general
@    s0 avalue prec 3
@    s0 avalue prepend ""
@    s0 avalue append ""
@    s0 avalue offset 0.000000 , 0.000000
@    s0 errorbar on
@    s0 errorbar place both
@    s0 errorbar color 1
@    s0 errorbar pattern 1
@    s0 errorbar size 1.000000
@    s0 errorbar linewidth 1.0
@    s0 errorbar linestyle 1
@    s0 errorbar riser linewidth 1.0
@    s0 errorbar riser linestyle 1
@    s0 errorbar riser clip off
@    s0 errorbar riser clip length 0.100000
@    s0 comment "pull_force_vs_displacement.xvg"
@    s0 legend  ""
@target G0.S0
@type xy
0.503179 -2.35769e-05
0.500994 3.1847
0.496581 8.59752
0.499219 6.95953
0.496396 10.7834
0.49621 11.9688
0.502426 6.7529
0.499325 10.8542
0.501278 9.90087
0.502688 9.49113
0.503246 9.93313
0.499926 14.2532
0.49897 16.2095
0.506602 9.57704
0.504445 12.7342
0.499528 18.6514
0.496099 23.0796
0.500476 19.7028
0.50059 20.5889
0.502958 19.2214
0.498924 24.2551
0.504747 19.4318
0.508729 16.45
0.503189 22.9905
0.504378 22.8005
0.499778 28.4015
0.499765 29.4137
0.494512 35.6675
0.496392 34.7874
0.497556 34.6233
0.493532 39.6468
0.494027 40.1524
0.497694 37.4853
0.489327 46.8518
0.488419 48.76
0.487004 51.1748
0.488717 50.4625
0.495551 44.6281
0.495922 45.2572
0.49571 46.4695
0.492366 50.8128
0.49195 52.2293
0.49508 50.0987
0.501677 44.5024
0.502957 44.2221
0.500133 48.0463
0.498313 50.866
0.495255 54.9239
0.489371 61.8082
0.488748 63.4313
0.492143 61.0362
0.501777 52.4015
0.500385 54.7944
0.502749 53.4299
0.503344 53.8353
0.494558 63.6206
0.493279 65.9004
0.499155 61.0241
0.499769 61.4103
0.500029 62.1503
0.497876 65.3029
0.496571 67.608
0.493335 71.8436
0.499292 66.887
0.506646 60.5326
0.500568 67.6112
0.49412 75.0593
0.498577 71.6023
0.50054 70.6389
0.497426 74.7532
0.503491 69.6877
0.504375 69.8036
0.509593 65.5865
0.509204 66.9747
0.510392 66.7866
0.50788 70.2985
0.510776 68.4026
0.51429 65.8894
0.508225 72.9538
0.506449 75.7297
0.50629 76.8887
0.50428 79.8989
0.508661 76.5183
0.5109 75.2788
0.510711 76.468
0.501897 86.282
0.503341 85.8383
0.504921 85.2581
0.506453 84.7258
0.503035 89.144
0.503882 89.2968
0.51243 81.7485
0.510007 85.1716
0.504094 92.0845
0.507985 89.1939
0.509816 88.3628
0.508638 90.5414
0.511909 88.2705
0.507369 93.8097
0.510376 91.8029
0.508842 94.3366
0.507773 96.4056
0.508503 96.6765
0.502436 103.743
0.506107 101.072
0.506097 102.082
0.509203 99.9761
0.512877 97.3023
0.514422 96.757
0.5064 105.779
0.501926 111.253
0.505373 108.806
0.50841 106.769
0.506163 110.016
0.506108 111.071
0.512034 106.145
0.511661 107.518
0.508776 111.403
0.510789 110.39
0.517344 104.835
0.517352 105.827
0.515955 108.224
0.51403 111.149
0.510337 115.842
0.509187 117.992
0.508047 120.132
0.510617 118.562
0.52204 108.139
0.521865 109.314
0.510886 121.293
0.505354 127.825
0.508918 125.261
0.506854 128.325
0.507717 128.462
0.509617 127.562
0.508363 129.816
0.507075 132.104
0.499491 140.688
0.501704 139.475
0.507779 134.4
0.511038 132.141
0.513157 131.022
0.51675 128.429
0.511569 134.61
0.514325 132.854
0.515761 132.418
0.517542 131.637
0.511593 138.586
0.507104 144.075
0.504126 148.053
0.506183 146.996
0.499274 154.905
0.499523 155.656
0.504696 151.483
0.500961 156.218
0.506341 151.838
0.505993 153.186
0.503129 157.05
0.501111 160.068
0.498668 163.511
0.498746 164.433
0.50092 163.259
0.499144 166.035
0.505574 160.605
0.503633 163.546
0.498013 170.166
0.501573 167.606
0.503454 166.725
0.508143 163.036
0.505139 167.04
0.503489 169.69
0.505283 168.897
0.504372 170.807
0.500764 175.415
0.499655 177.524
0.505335 172.844
0.502809 176.37
0.496831 183.348
0.498399 182.78
0.504486 177.693
0.504268 178.911
0.499165 185.014
0.496618 188.561
0.497654 188.525
0.498891 188.288
0.498999 189.18
0.50003 189.149
0.499526 190.653
0.49947 191.709
0.506699 185.48
0.502873 190.306
0.50568 188.499
0.503502 191.677
0.50024 195.939
0.502256 194.923
0.501248 196.931
0.496862 202.317
0.500935 199.244
0.499267 201.912
0.498315 203.864
0.499498 203.681
0.501651 202.528
0.502083 203.096
0.505833 200.346
0.502538 204.641
0.504248 203.931
0.509147 200.032
0.504762 205.417
0.501093 210.086
0.498847 213.332
0.498037 215.142
0.50268 211.499
0.503573 211.606
0.501828 214.351
0.495092 222.087
0.503661 214.518
0.507127 212.052
0.508072 212.107
0.510055 211.124
0.499506 222.673
0.499511 223.668
0.503331 220.848
0.503074 222.105
0.500405 225.774
0.500308 226.871
0.499869 228.31
0.4975 231.679
0.501539 228.64
0.504432 226.747
0.504127 228.052
0.502678 230.501
0.501452 232.727
0.507017 228.162
0.510199 225.98
0.503741 233.438
0.504241 233.938
0.508335 230.844
0.507374 232.805
0.507456 233.723
0.499158 243.021
0.497482 245.697
0.506878 237.301
0.510492 234.687
0.505311 240.868
0.506281 240.898
0.506956 241.223
0.505002 244.177
0.509086 241.093
0.515792 235.387
0.51447 237.709
0.509435 243.744
0.507963 246.216
0.508133 247.046
0.504907 251.272
0.506602 250.577
0.503802 254.377
0.506491 252.688
0.510679 249.5
0.505791 255.388
0.506089 256.09
0.510647 252.532
0.513268 250.911
0.516512 248.667
0.511708 254.471
0.508515 258.664
0.512585 255.594
0.517073 252.106
0.522468 247.711
0.526798 244.381
0.523047 249.132
0.514382 258.797
0.512955 261.224
0.518561 256.618
0.520034 256.145
0.518503 258.676
0.516634 261.545
0.520186 258.993
0.521732 258.447
0.520976 260.203
0.518506 263.673
0.51665 266.529
0.512016 272.163
0.510452 274.727
0.5102 275.979
0.511179 276
0.505107 283.072
0.510305 278.874
0.513167 277.012
0.51295 278.229
0.51202 280.16
0.514275 278.904
0.515253 278.926
0.52 275.179
0.516092 280.087
0.511926 285.253
0.51563 282.549
0.511861 287.318
0.515021 285.158
0.515344 285.835
0.516849 285.33
0.513582 289.597
0.508527 295.652
0.517082 288.097
0.522771 283.408
0.523951 283.228
0.52069 287.489
0.52316 286.019
0.528015 282.164
0.527555 283.624
0.52372 288.459
0.523542 289.637
0.527163 287.016
0.528053 287.126
0.524963 291.216
0.52513 292.049
0.520036 298.143
0.519616 299.563
0.525906 294.273
0.525196 295.983
0.521815 300.364
0.519561 303.618
0.52206 302.119
0.527999 297.18
0.522516 303.663
0.519543 307.636
0.517127 311.052
0.515051 314.128
0.516841 313.338
0.516081 315.098
0.516472 315.707
0.517995 315.184
0.511943 322.236
0.517506 317.673
0.521248 314.931
0.523442 313.737
0.524847 313.332
0.520221 318.958
0.520724 319.455
0.523262 317.917
0.516427 325.752
0.512847 330.332
0.514469 329.71
0.523269 321.91
0.528425 317.754
0.528008 319.171
0.524278 323.901
0.522259 326.92
0.524764 325.415
0.525523 325.656
0.524666 327.513
0.522338 330.841
0.522808 331.371
0.520496 334.683
0.513691 342.488
0.509304 347.875
0.503513 354.666
0.50166 357.519
0.505708 354.471
0.509042 352.137
0.510736 351.443
0.508301 354.878
0.506611 357.568
0.506623 358.556
0.510994 355.185
0.514523 352.656
0.518855 349.324
0.52115 348.029
0.516569 353.61
0.514689 356.49
0.512026 360.153
0.513701 359.478
0.508528 365.651
0.505639 369.54
0.506903 369.276
0.504941 372.238
0.508911 369.268
0.51245 366.729
0.512162 368.017
0.50985 371.329
0.512467 369.712
0.514481 368.698
0.515628 368.551
0.515862 369.317
0.514918 371.261
0.521738 365.441
0.530055 358.124
0.526486 362.693
0.52383 366.349
0.525381 365.798
0.525057 367.122
0.521632 371.547
0.520872 373.307
0.523909 371.27
0.522175 374.004
0.519168 378.011
0.513583 384.596
0.512839 386.34
0.508788 391.391
0.511053 390.126
0.513486 388.693
0.514909 388.27
0.512244 391.935
0.507999 397.18
0.512465 393.714
0.514525 392.654
0.512422 395.757
0.511344 397.835
0.51067 399.509
0.505732 405.447
0.509267 402.912
0.514685 398.494
0.512267 401.912
0.513053 402.126
0.515492 400.687
0.512178 405.001
0.507166 411.013
0.505057 414.122
0.503419 416.76
0.500178 421.001
0.502964 419.215
0.510999 412.18
0.516055 408.124
0.510996 414.183
0.509575 416.604
0.518112 409.067
0.5175 410.679
0.514025 415.154
0.512763 417.416
0.514562 416.617
0.513174 419.005
0.512965 420.214
0.513942 420.237
0.514027 421.152
0.510745 425.434
0.510279 426.9
0.516884 421.295
0.523064 416.115
0.525943 414.236
0.526978 414.201
0.516903 425.276
0.51911 424.069
0.520204 423.975
0.518083 427.096
0.519116 427.063
0.509309 437.87
0.501878 446.301
0.505074 444.105
0.505673 444.506
0.50861 442.569
0.513738 438.441
0.518717 434.462
0.519997 434.182
0.511827 443.352
0.514052 442.127
0.521544 435.635
0.517939 440.24
0.516751 442.428
0.51879 441.389
0.513292 447.887
0.50804 454.139
0.506793 456.386
0.515993 448.186
0.51842 446.759
0.521724 444.455
0.521877 445.302
0.523771 444.408
0.522966 446.213
0.521079 449.1
0.51986 451.319
0.519423 452.756
0.514274 458.905
0.512505 461.674
0.525656 449.523
0.52779 448.389
0.521918 455.261
0.522791 455.388
0.52128 457.899
0.515852 464.327
0.516667 464.512
0.509659 472.52
0.510853 472.326
0.518028 466.151
0.51761 467.569
0.510505 475.674
0.514772 472.407
0.51542 472.759
0.518874 470.305
0.526369 463.81
0.529234 461.945
0.522594 469.585
0.519473 473.706
0.518105 476.074
0.510043 485.136
0.509303 486.876
0.51222 484.959
0.510785 487.394
0.510504 488.675
0.511476 488.703
0.511582 489.597
0.518793 483.386
0.5169 486.279
0.508342 495.837
0.507456 497.723
0.515353 490.826
0.518406 488.773
0.518144 490.035
0.518986 490.193
0.510542 499.637
0.507068 504.111
0.50701 505.169
0.513283 499.896
0.520007 494.172
0.521222 493.957
0.51369 502.489
0.511646 505.533
0.511898 506.281
0.512806 506.373
0.514585 505.594
0.51393 507.249
0.512084 510.095
0.513974 509.205
0.510625 513.554
0.50631 518.869
0.509102 517.077
0.511873 515.306
0.518436 509.743
0.518375 510.804
0.524114 506.065
0.523157 508.022
0.519684 512.495
0.516095 517.084
0.514922 519.257
0.516009 519.17
0.522931 513.248
0.522483 514.696
0.52118 516.999
0.522754 516.425
0.523875 516.304
0.519716 521.463
0.517638 524.541
0.518752 524.427
0.518036 526.143
0.511862 533.317
0.511458 534.721
0.516835 530.344
0.515865 532.314
0.518121 531.058
0.518117 532.062
0.513348 537.831
0.508935 543.244
0.510577 542.602
0.511687 542.492
0.512878 542.301
0.509434 546.745
0.512688 544.491
0.511929 546.25
0.514598 544.581
0.518098 542.081
0.516845 544.334
0.520817 541.362
0.518463 544.716
0.515346 548.833
0.518573 546.606
0.5197 546.479
0.518653 548.526
0.511097 557.082
0.509629 559.55
0.509787 560.392
0.505295 565.884
0.505031 567.148
0.507768 565.411
0.509033 565.146
0.508139 567.04
0.517264 558.915
0.521617 555.562
0.518183 559.996
0.519781 559.398
0.516557 563.622
0.517885 563.294
0.518235 563.944
0.515645 567.534
0.51007 574.109
0.511591 573.588
0.515226 570.953
0.51496 572.219
0.510153 578.026
0.51174 577.439
0.513317 576.862
0.510195 580.984
0.509806 582.373
0.507573 585.606
0.509166 585.013
0.509258 585.921
0.511743 584.436
0.50949 587.689
0.513522 584.657
0.508363 590.816
0.503559 596.62
0.513453 587.726
0.515461 586.718
0.516461 586.718
0.515392 588.787
0.516302 588.877
0.518443 587.736
0.519702 587.477
0.51199 596.189
0.513105 596.074
0.516307 593.872
0.516943 594.236
0.518732 593.447
0.521204 591.975
0.515173 599.006
0.516902 598.277
0.516002 600.177
0.513651 603.528
0.513321 604.858
0.516413 602.766
0.521327 598.852
0.511956 609.223
0.512969 609.21
0.528205 594.974
0.521543 602.636
0.514667 610.512
0.524277 601.902
0.521638 605.541
0.518891 609.288
0.517092 612.087
0.522436 607.743
0.521669 609.51
0.519354 612.825
0.518544 614.635
0.516499 617.68
0.51778 617.399
0.516565 619.614
0.518068 619.111
0.515268 622.911
0.517073 622.106
0.513528 626.651
0.518686 622.493
0.523627 618.552
0.522029 621.15
0.515444 628.735
0.514089 631.09
0.513215 632.964
0.514761 632.418
0.520557 627.622
0.519969 629.21
0.519526 630.653
0.518231 632.948
0.522429 629.75
0.522803 630.376
0.5218 632.379
0.523676 631.503
0.520658 635.521
0.523205 633.974
0.525711 632.468
0.526128 633.051
0.52445 635.729
0.520629 640.55
0.51323 648.949
0.512467 650.712
0.511531 652.648
0.516228 648.951
0.517201 648.978
0.515861 651.318
0.521554 646.625
0.523595 645.584
0.521891 648.288
0.522233 648.946
0.524365 647.814
0.52385 649.329
0.529852 644.327
0.529705 645.474
0.522485 653.694
0.524118 653.061
0.528655 649.524
0.531041 648.138
0.531675 648.504
0.533601 647.578
0.528015 654.164
0.529963 653.216
0.525049 659.13
0.527581 657.598
0.521188 664.991
0.517742 669.437
0.514067 674.112
0.51553 673.649
0.513336 676.843
0.506934 684.245
0.508218 683.961
0.514082 679.097
0.512201 681.978
0.513086 682.093
0.515046 681.133
0.516252 680.927
0.515804 682.375
0.514886 684.293
0.512151 688.028
0.511634 689.545
0.513951 688.228
0.514046 689.133
0.512595 691.584
0.517774 687.405
0.523822 682.357
0.523107 684.072
0.525877 682.302
0.52249 686.689
0.522513 687.666
0.523914 687.265
